NAME:,idan_walk_2,,
EXPERIMENT TIME:,Thu Jun 01 11:48:04 GMT+03:00 2023,,
ACTIVITY TYPE:,Walking,,
COUNTS OF ACTUAL STEPS:,102,,
  , ,,
Time [sec],ACC X,ACC Y,ACC Z
0,-8.87,-4.39,-2.39
0.075497472,-9.34,-3.61,-2.08
0.142606336,-9.96,-3.73,-2.24
0.285212672,-9.18,-3.57,-0.51
0.402653184,-11.69,-9.18,-4.86
0.411041792,-4.94,-5.45,-6.51
0.54525952,-10.98,-4.24,-4.75
0.654311424,-7.22,-2.51,-3.26
0.654311424,-8.28,-0.2,-3.22
0.855638016,-8.59,-1.57,-2.31
0.931135488,-9.92,-2.24,-2.08
1.015021568,-13.77,-0.43,-1.96
1.023410176,-14.55,0.98,-6.63
1.149239296,-9.41,-2.59,-6.08
1.283457024,-9.96,-3.45,-4.28
1.291845632,-7.37,-2.35,-2.43
1.358954496,-7.53,-3.02,-2.31
1.518338048,-8.2,-3.49,-1.29
1.518338048,-10.51,-3.88,-2.79
1.585446912,-9.57,-5.1,-1.8
1.660944384,-10.04,-6.51,-7.34
1.694498816,-15.14,-2.08,-2.28
1.778384896,-4.9,-3.37,-3.49
1.84549376,-8.2,-0.2,-2.51
2.34881024,-8.79,-1.77,-1.84
2.357198848,-10.59,-1.61,-3.26
2.85212672,-11.41,-0.31,0.59
3.347054592,-15.69,-0.51,-7.49
3.363831808,-9.85,-3.73,-3.92
3.841982464,-7.61,-0.59,-11.06
3.850371072,-9.77,-2.67,-8.04
4.345298944,-12.28,-3.77,-3.37
4.353687552,-6.12,-1.45,-2.39
4.848615424,-7.45,-2.9,-10.52
5.343543296,-9.06,-1.22,-2.98
5.36870912,-14.98,-0.39,-1.06
5.377097728,-15.46,-0.08,-6.63
5.377097728,-7.73,-3.37,-16.63
5.427429376,-7.22,-0.63,-3.06
5.502926848,-7.69,-0.78,-1.06
5.595201536,-9.41,-1.8,-4.28
5.6623104,-11.1,-1.84,0.55
5.754585088,-15.97,0.12,-6.24
5.83008256,-10.43,-4.04,-3.84
5.905580032,-7.06,-1.37,-4.35
6.03979776,-7.41,-2.51,-2.67
6.106906624,-7.81,-2.86,-1.57
6.148849664,-9.49,-3.37,-1.57
6.232735744,-11.45,-6,-1.53
6.299844608,-11.85,-10.51,-5.61
6.400507904,-6.67,-5.77,-8.39
6.484393984,-11.45,-3.53,-4.24
6.568280064,-5.69,-2.28,-3.45
6.635388928,-8.71,-0.55,-2.98
6.719275008,-8.55,-1.33,-1.96
6.79477248,-9.3,-1.77,-3.37
6.9206016,-12.2,-1.1,-0.94
6.996099072,-18.48,0.51,-8.2
7.063207936,-8.87,-2.51,-4.55
7.1303168,-8.67,-1.37,-5.1
7.222591488,-7.53,-2.79,-3.02
7.281311744,-8.24,-2.63,-2.28
7.38197504,-8.2,-3.3,-2.55
7.440695296,-11.65,-3.41,-4
7.532969984,-9.34,-4.47,-2.35
7.600078848,-10.12,-8.12,-7.81
7.725907968,-13.22,-2.51,-3.96
7.793016832,-6.75,-4.47,-4.24
7.868514304,-7.57,-0.9,-3.84
7.935623168,-9.73,-0.9,-2.2
8.01112064,-8.16,-1.18,-0.98
8.086618112,-12.51,-3.65,-3.53
8.170504192,-11.22,-0.24,-3.3
8.246001664,-15.18,-0.55,-9.34
8.338276352,-10.9,-4.51,-2.71
8.413773824,-8.55,-0.98,-4.59
8.506048512,-7.02,-2.35,-3.53
8.5983232,-8.36,-3.37,-2.47
8.698986496,-8.32,-3.06,-1.8
8.76609536,-10.98,-5.61,-3.8
8.841592832,-13.57,-5.57,-4.04
8.908701696,-8.9,-5.49,-7.57
8.992587776,-10.75,-2.94,-4.04
9.05969664,-7.34,-4.28,-3.61
9.151971328,-7.65,-0.31,-2.75
9.235857408,-7.49,-0.86,-2.35
9.319743488,-9.65,-2.51,-3.14
9.378463744,-11.26,-0.59,0.16
9.462349824,-15.85,-1.29,-6.24
9.554624512,-9.61,-3.14,-3.88
9.630121984,-8.98,-1.06,-4.39
9.705619456,-7.22,-2.94,-3.26
9.848225792,-8.32,-3.26,-1.69
9.906946048,-9.1,-3.41,-1.18
9.965666304,-10.63,-4.2,-2.71
10.04955238,-14,-6.55,-2.71
10.10827264,-7.45,-5.65,-7.57
10.19215872,-11.73,-3.65,-4.04
10.2760448,-7.22,-3.65,-3.37
10.35993088,-7.73,-0.12,-2.31
10.82969293,-8.24,-0.82,-1.53
11.34139802,-9.14,-1.37,-2.98
11.34978662,-12.98,-1.06,-1.1
11.34978662,-15.42,-0.27,-5.69
11.36656384,-7.61,-3.8,-16.83
11.40850688,-7.69,-2,-6.2
11.49239296,-8.2,-3.18,-5.37
11.57627904,-6.59,-2,-3.45
11.71049677,-8.24,-0.67,-2.28
11.77760563,-8.67,-0.98,-0.94
11.82793728,-12.51,-3.96,-3.06
11.90343475,-13.69,-0.43,-2.9
11.99570944,-13.34,-1.69,-8.28
12.0544297,-11.53,-4.08,-3.18
12.15509299,-7.61,-0.71,-3.57
12.23059046,-7.77,-3.3,-2.86
12.32286515,-8.47,-3.53,-2.39
12.38997402,-8.39,-3.37,-2.24
12.46547149,-12.51,-3.57,-3.14
12.60807782,-10.98,-5.96,-2.71
12.67518669,-10.87,-8.08,-5.37
12.74229555,-13.26,-0.71,-3.96
12.84295885,-8.55,-3.96,-4
12.91006771,-7.85,-0.82,-3.53
12.97717658,-9.18,-0.9,-2.31
13.1030057,-9.1,-1.37,-1.8
13.1030057,-12.4,-2.98,-2.12
13.20366899,-14.51,-0.86,-2.98
13.27077786,-11.57,-1.61,-7.57
13.37144115,-12.32,-4.55,-3.18
13.48888166,-7.49,-0.82,-2.82
13.56437914,-7.57,-3.26,-2.82
13.631488,-7.26,-3.57,-1.96
13.70698547,-9.77,-3.33,-2.79
13.77409434,-10.59,-5.77,-1.18
13.84959181,-10.79,-9.92,-6.59
13.93347789,-7.73,-3.02,-7.81
14.00058675,-10.83,-4.08,-4.51
14.08447283,-6.12,-3.22,-3.49
14.17674752,-8,-0.24,-2
14.2606336,-7.22,-1.02,-1.73
14.32774246,-10.9,-2.47,-3.22
14.42840576,-10.79,0.04,-1.14
14.50390323,-16.08,1.77,-8.83
14.56262349,-10.43,-4.39,-3.33
14.70522982,-9.53,-0.55,-3.61
14.74717286,-6.2,-3.18,-2.9
14.82267034,-8.28,-3.37,-1.92
14.91494502,-8.2,-3.41,-2.28
14.97366528,-12.08,-5.61,-2.71
15.05755136,-13.45,-6.55,-3.73
15.14143744,-7.85,-6.86,-6.39
15.24210074,-13.81,-1.22,-4.04
15.29243238,-7.61,-4.51,-3.92
15.40148429,-7.14,-0.51,-2.82
15.54409062,-8.71,-1.06,-2
15.61119949,-9.18,-2.39,-1.65
15.66153114,-12.59,-1.92,-2.35
15.72025139,-16.36,1.18,-6.28
15.78736026,-7.77,-1.73,-8.28
15.88802355,-12.12,-4.55,-4.12
15.94674381,-7.34,-0.27,-3.3
16.06418432,-7.37,-2,-2.79
16.11451597,-7.06,-3.45,-2.16
16.19840205,-10,-3.69,-3.65
16.26551091,-10.08,-4.2,-0.86
16.3577856,-16.44,-8.47,-5.96
16.81077043,-6.94,-2.31,-7.34
17.32247552,-9.96,-4.24,-5.3
17.37280717,-6,-2.75,-3.06
17.38958438,-7.61,-0.16,-2.71
17.39797299,-8.71,-1.06,-12.47
17.41475021,-9.18,-2.67,-1.61
17.49863629,-11.1,-3.57,-2.86
17.56574515,-11.38,-6.39,-3.8
17.64963123,-6.75,-5.61,-6.79
17.73351731,-13.61,-3.14,-4.24
17.80062618,-5.84,-3.41,-3.33
17.89290086,-7.57,-0.2,-2.86
17.98517555,-8.39,-0.63,-2.28
18.05228442,-9.02,-2.24,-3.14
18.1445591,-11.85,-1.92,-1.1
18.25361101,-16.2,-0.12,-5.61
18.32071987,-7.96,-2.75,-6.32
18.39621734,-9.53,-2,-4.31
18.46332621,-6.75,-1.92,-3.1
18.53882368,-7.88,-3.18,-2.59
18.64787558,-8.36,-3.06,-2.31
18.71498445,-10.12,-3.14,-3.88
18.7737047,-10.55,-3.41,-0.67
18.86597939,-13.61,-10.28,-7.34
18.95825408,-10.28,-2.28,-6.28
19.02536294,-9.73,-3.69,-4.63
19.11763763,-6.35,-1.92,-3.57
19.21830093,-7.81,-0.47,-2.71
19.28540979,-8.51,-0.94,-2.98
19.36090726,-12.75,-2.04,-2.82
19.42801613,-11.06,-0.35,0.27
19.51190221,-16.08,-0.51,-8.87
19.59578829,-8.98,-1.65,-3.96
19.67967437,-7.53,-1.14,-4.75
19.77194906,-8.24,-2.79,-3.06
19.83905792,-7.96,-3.69,-2.59
19.922944,-9.02,-3.02,-1.96
19.99844147,-10.36,-2.86,-2.51
20.08232755,-9.69,-5.37,-2.75
20.19976806,-12.08,-6.47,-6.2
20.25848832,-14.75,-3.33,-2.94
20.32559718,-6.32,-4.2,-3.37
20.40109466,-6.55,-0.55,-3.22
20.48498074,-8.36,-0.16,-2.39
20.57725542,-9.49,-1.96,-2.55
20.66953011,-12.16,-0.08,-2.16
20.74502758,-11.65,2.16,-2.47
20.81213645,-14.32,-3.53,-7.61
20.87924531,-10.94,-3.02,-3.65
20.97990861,-6.71,-0.67,-4.2
21.06379469,-8,-2.55,-3.92
21.13090355,-8.39,-3.77,-2.04
21.2818985,-8.39,-2.71,-1.77
21.34900736,-11.06,-4.47,-3.73
21.41611622,-10.4,-3.96,0.24
21.45805926,-13.42,-7.37,-3.65
21.54194534,-8.16,-3.73,-5.45
21.62583142,-9.1,-4,-4.28
21.7013289,-6.98,-1.96,-3.73
21.79360358,-7.81,-0.82,-3.02
21.87748966,-8.08,-0.16,-1.88
21.95298714,-11.3,-2.24,-3.41
22.03687322,-12.36,-1.57,-0.59
22.10398208,-15.85,-0.43,-6.9
22.24658842,-6.9,-1.1,-5.22
22.32208589,-9.18,-2.24,-4.31
22.80023654,-6.63,-2.12,-2.98
23.29516442,-8.55,-2.9,-2.28
23.32033024,-7.61,-3.18,-2.31
23.33710746,-10.51,-5.22,-3.18
23.33710746,-9.02,-5.53,-13.93
23.34549606,-12.75,0.78,-3.49
23.40421632,-12.36,-2.28,-6.75
23.4881024,-13.1,-3.18,-2
23.58037709,-7.06,-2.16,-4.39
23.63909734,-7.73,-3.06,-4.16
23.73137203,-7.34,-3.22,-2.71
23.82364672,-9.65,-3.26,-2.55
23.88236698,-9.61,-4.39,-2.82
24.0165847,-9.96,-7.49,-4.63
24.09208218,-10.16,-5.81,-6
24.15080243,-15.57,-4.75,-3.57
24.23468851,-7.57,-2.82,-3.45
24.30179738,-7.1,0.9,-3.45
24.37729485,-8.2,-2.75,-2.47
24.46956954,-9.38,-0.82,-2.35
24.54506701,-13.53,-2.82,-2.59
24.6373417,-12.71,1.37,-4.82
24.70445056,-12.63,-3.3,-7.53
24.79672525,-12,-3.73,-2.43
24.8554455,-6.9,-0.9,-3.73
24.96449741,-6.79,-3.06,-3.22
25.03160627,-8.12,-3.26,-2.04
25.09032653,-8.51,-2.9,-1.96
25.24132147,-11.45,-5.41,-2.35
25.30843034,-8.16,-5.73,-0.35
25.35037338,-14.12,-9.53,-6.83
25.44264806,-11.53,-0.98,-4
25.50975693,-7.65,-4.86,-3.61
25.60203162,-6.55,-1.29,-3.53
25.6859177,-7.96,-0.55,-2.08
25.75302656,-7.49,-0.86,-1.96
25.83691264,-11.81,-3.53,-2.86
25.91241011,-10.79,-1.02,0.24
26.05501645,-16.08,1.73,-7.73
26.18923418,-11.38,-3.8,-3.53
26.25634304,-9.34,-0.35,-4
26.33184051,-7.49,-2.59,-3.14
26.35700634,-7.69,-3.37,-1.73
26.39894938,-8.83,-2.43,-2.39
26.47444685,-10.98,-4.98,-3.33
26.55833293,-9.49,-6.28,-1.84
26.65060762,-14.12,-6,-5.49
26.7344937,-13.14,-2.28,-3.61
26.79321395,-8.36,-4.79,-4.28
26.9442089,-7.22,-0.82,-3.33
27.00292915,-8.47,-1.02,-2.63
27.07003802,-8.59,-1.18,-1.84
27.13714688,-10.28,-2.51,-2.79
27.21264435,-11.65,-1.26,0
27.29653043,-16.28,-0.04,-6.75
27.38041651,-8.63,-2.39,-3.92
27.45591398,-9.14,-1.02,-4.16
27.5817431,-6.04,-2.35,-3.26
27.62368614,-8.83,-2.94,-1.8
27.69079501,-7.57,-3.73,-2.08
27.7830697,-11.49,-4.24,-2.43
27.85017856,-10.28,-4.98,-0.82
27.98439629,-13.85,-8.94,-6.08
28.05989376,-12.83,-1.84,-3.88
28.12700262,-8.43,-4.86,-3.69
28.2025001,-6.83,-1.49,-3.14
28.26122035,-8.67,0,-1.92
28.78131405,-8.36,-1.37,-1.02
29.30140774,-12.55,-3.77,-2.94
29.32657357,-11.14,0.51,-1.33
29.33496218,-14.91,-0.51,-5.84
29.33496218,-11.18,-4.67,-10.63
29.33496218,-12.32,-1.02,-4.04
29.39368243,-7.77,-4.04,-3.84
29.47756851,-7.26,-1.02,-3.26
29.57823181,-8.36,-0.9,-2.16
29.64534067,-8.71,-0.71,-1.37
29.74600397,-13.81,-3.02,-2.63
29.81311283,-15.02,-0.27,-4.24
29.8886103,-11.22,-1.65,-8
30.02282803,-11.06,-5.49,-3.22
30.0899369,-6.75,-0.47,-3.37
30.16543437,-8.16,-2.67,-2.86
30.21576602,-7.57,-3.73,-1.41
30.2996521,-9.3,-2.9,-2.63
30.38353818,-11.49,-5.33,-0.78
30.46742426,-11.38,-9.61,-5.1
30.52614451,-6.55,-3.33,-8.36
30.6184192,-11.92,-5.14,-5.22
30.7190825,-6.16,-2.75,-3.41
30.78619136,-7.61,-0.27,-2.63
30.91202048,-8.08,-0.16,-1.45
30.98751795,-9.61,-2.55,-3.77
31.05462682,-11.22,-1.61,0.12
31.11334707,-16.59,-1.18,-6.55
31.18045594,-9.1,-4.43,-4.79
31.27273062,-9.89,-1.96,-3.57
31.33983949,-7.77,-2.9,-3.06
31.42372557,-8.71,-3.69,-2.24
31.49083443,-8.59,-3.18,-1.69
31.59149773,-10.67,-2.86,-3.22
31.6669952,-10,-4.63,-0.31
31.74249267,-15.89,-11.34,-8.16
31.88509901,-8.16,-1.41,-5.22
31.95220787,-7.37,-4.16,-5.33
32.01931674,-7.49,-2.55,-4.55
32.0864256,-8.59,-0.71,-3.69
32.14514586,-9.34,-0.71,-1.33
32.23742054,-9.22,-2.94,-2.82
32.32969523,-11.45,-2.75,-0.2
32.38841549,-16.95,-1.22,-8.39
32.48069018,-11.61,-2.98,-4.08
32.55618765,-6.79,-0.86,-4.12
32.69879398,-7.77,-2.94,-3.3
32.76590285,-9.26,-3.53,-2.24
32.83301171,-8.43,-3.33,-1.61
32.90012058,-11.57,-4.71,-3.18
32.96722944,-8.94,-5.33,-1.26
33.04272691,-12.32,-8.43,-6.28
33.12661299,-12.16,-2.63,-4.55
33.21888768,-6.71,-4.47,-4.79
33.28599654,-7.49,-0.55,-3.88
33.36988262,-8.55,-0.63,-1.8
33.43699149,-9.81,-1.65,-1.37
33.52087757,-12.12,-3.41,-2.16
33.61315226,-13.96,-1.26,-3.8
33.73898138,-13.3,-1.57,-8.59
33.81447885,-12.47,-4.35,-2.82
33.88158771,-8.28,-0.86,-3.33
33.95708518,-7.1,-3.45,-2.82
34.01580544,-7.26,-3.02,-1.77
34.09969152,-8.83,-3.37,-2.51
34.17518899,-10.67,-5.06,-2.86
34.25068646,-11.81,-6.55,-3.57
34.77078016,-9.41,-6.55,-6.32
35.29926246,-15.22,-1.49,-2.94
35.31603968,-7.3,-4.51,-3.84
35.32442829,-7.73,-1.18,-3.45
35.32442829,-8.36,-0.9,-11.02
35.3412055,-7.77,-2.79,-2.43
35.39153715,-8.83,-3.3,-2.59
35.49220045,-10.87,-4.51,-3.06
35.56769792,-12.04,-5.41,-4.39
35.71869286,-8.47,-4.79,-7.61
35.85291059,-12.28,-3.02,-4.43
35.8612992,-6.12,-3.8,-3.84
35.90324224,-7.41,-0.47,-2.94
35.9619625,-9.22,-0.55,-1.8
36.06262579,-9.53,-1.69,-2.16
36.11295744,-13.77,-1.84,-2.71
36.20523213,-14,0.31,-4.35
36.29750682,-12.55,-1.96,-8.24
36.35622707,-11.49,-4.86,-3.45
36.46527898,-7.3,-0.67,-3.49
36.53238784,-7.34,-3.3,-3.37
36.5994967,-7.57,-3.41,-2.47
36.67499418,-9.41,-3.06,-2.39
36.81760051,-10.75,-4.71,-2.35
36.89309798,-10.04,-6.2,-3.1
36.92665242,-8.67,-7.73,-7.96
37.0189271,-16.51,-2.82,-2.39
37.10281318,-6.51,-2.9,-3.77
37.16153344,-6.94,-0.67,-3.1
37.25380813,-8.43,-1.02,-2.71
37.34608282,-9.02,-0.71,-3.14
37.42158029,-12.71,-1.33,-2.12
37.55579802,-14.32,2.82,-6.47
37.63129549,-7.73,-2.16,-8.55
37.70679296,-10.75,-3.22,-4.67
37.77390182,-6.47,-2.12,-3.1
37.8493993,-7.73,-2.94,-2.86
37.91650816,-7.88,-3.41,-1.92
37.99200563,-10.24,-3.18,-2.67
38.08428032,-9.14,-4.75,-0.9
38.14300058,-15.34,-9.3,-5.49
38.23527526,-7.85,-3.14,-7.18
38.31916134,-9.96,-3.73,-4.63
38.38627021,-5.92,-2.59,-3.3
38.52048794,-7.69,-0.04,-2.67
38.5875968,-7.92,-1.29,-2.28
38.65470566,-10.51,-1.18,-3.65
38.72181453,-10.43,-1.77,-0.2
38.797312,-15.93,0.67,-6
38.88119808,-10.51,-4.9,-4.39
38.97347277,-9.18,-1.1,-4.35
39.04058163,-8.08,-3.06,-3.45
39.12446771,-7.96,-3.69,-2.31
39.20835379,-8.12,-3.45,-1.73
39.27546266,-10.75,-2.86,-3.06
39.40968038,-9.45,-3.84,-0.2
39.48517786,-14.24,-9.69,-4.98
39.56067533,-7.65,-2.82,-6.71
39.6361728,-9.73,-4.31,-4.82
39.70328166,-6.59,-2.16,-3.37
39.77039053,-8.2,-0.39,-2.39
39.86266522,-7.96,-1.22,-1.26
39.9549399,-9.65,-3.1,-3.22
40.0556032,-10.51,0.24,-0.71
40.14787789,-16.48,-0.75,-7.92
40.18982093,-9.14,-3.3,-3.65
40.27370701,-9.53,-1.61,-4.08
40.76024627,-7.77,-2.86,-3.53
41.26356275,-8.63,-3.69,-2.43
41.28033997,-8.2,-3.22,-1.88
41.28872858,-10.79,-3.65,-3.73
41.29711718,-10.04,-3.45,0.27
41.32228301,-10.55,-0.9,-2.39
41.39778048,-11.85,-3.22,-7.77
41.48166656,-10.63,-0.31,-3.96
41.54877542,-10.12,-2.39,-5.41
41.64943872,-8.83,-1.96,-4.63
41.70815898,-9.61,-3.26,-5.26
41.80043366,-8.67,-4.12,-3.45
41.85915392,-9.14,-3.77,-3.1
41.95142861,-9.14,-3.02,-3.02
42.02692608,-9.89,-2.79,-2.31
42.11920077,-4.16,-5.1,-7.77
42.22825267,-14.59,-2.35,-6.08
42.29536154,-8,-3.3,-5.84
42.3624704,-9.34,-1.14,-4.86
42.43796787,-8.83,-2.04,-4.59
42.58057421,-8.63,-1.88,-3.33
42.61412864,-9.53,-1.53,-3.18
42.6812375,-11.69,1.84,-1.14
42.76512358,-17.22,-0.27,-9.77
42.85739827,-8.28,-1.45,-7.1
42.93289574,-10.67,-2.9,-4.75
43.00000461,-7.22,-1.73,-3.37
43.0922793,-7.81,-3.06,-3.3
43.15938816,-6.75,-3.65,-1.92
43.3019945,-9.38,-3.22,-2.59
43.36910336,-10.04,-5.26,-1.26
43.44460083,-16,-9.06,-4.2
43.50332109,-8.79,-3.06,-6.43
43.57042995,-9.61,-3.69,-4.63
43.67109325,-6.32,-2.9,-3.45
43.7298135,-7.49,0.08,-3.65
43.82208819,-8.39,-1.69,-2.2
43.89758566,-9.85,-1.06,-3.45
43.97308314,-12.43,-0.43,-0.94
44.10730086,-15.46,0.63,-6.55
44.17440973,-7.85,-3.53,-5.73
44.24151859,-9.85,-2.08,-3.96
44.30862746,-6.59,-1.33,-2.82
44.37573632,-8.04,-2.79,-2.82
44.50995405,-7.81,-3.8,-2.31
44.57706291,-10.87,-3.22,-3.26
44.63578317,-9.73,-4.2,-0.16
44.71128064,-15.14,-11.1,-8.04
44.79516672,-10.83,-2.71,-4.47
44.87066419,-9.06,-4.28,-4.28
44.94616166,-6.51,-1.8,-3.65
45.07199078,-7.61,-0.78,-3.02
45.14748826,-8.51,-1.06,-2.51
45.21459712,-10.75,-1.96,-3.26
45.28170598,-12.87,-1.88,-0.71
45.34881485,-16.55,0.75,-6.9
45.48303258,-7.49,-3.77,-5.06
45.53336422,-10.43,-1.02,-3.41
45.60047309,-7.49,-2.51,-3.45
45.68435917,-7.45,-3.02,-2.75
45.76824525,-7.85,-3.69,-2
45.83535411,-10.75,-4.24,-2.63
45.91924019,-9.34,-4.47,-0.67
46.0282921,-12.94,-9.53,-6.12
46.09540096,-5.02,-2.94,-7.88
46.17089843,-10.32,-4.63,-4.28
46.2380073,-6.9,-2.43,-3.22
46.74132378,-7.45,-1.02,-3.02
47.24464026,-7.49,-0.08,-2.59
47.27819469,-11.14,-1.14,-3.8
47.2865833,-10.87,-2.2,-0.31
47.2865833,-19.73,2.63,-17.34
47.32013773,-14.87,-7.49,-6.16
47.37046938,-11.89,-2.55,-3.69
47.47113267,-7.06,-3.77,-4
47.54663014,-6.16,-0.86,-2.98
47.63890483,-8.36,-0.04,-1.53
47.69762509,-8.59,-1.45,-1.26
47.78151117,-13.73,-3.49,-2.59
47.87378586,-15.38,0.9,-4.43
47.94928333,-11.3,-2.86,-8.51
48.08350106,-11.49,-4.12,-2.55
48.15060992,-6.67,0.43,-2.67
48.22610739,-6.79,-2.79,-2.9
48.36032512,-6.71,-3.92,-2.08
48.36871373,-9.96,-3.84,-2.79
48.42743398,-9.22,-4.75,-0.43
48.52809728,-13.73,-9.61,-5.73
48.61198336,-8.36,-2.51,-7.57
48.67070362,-10.51,-4.59,-4.55
48.78814413,-5.49,-2.67,-3.41
48.85525299,-7.37,-1.45,-2.47
48.91397325,-7.34,0.31,-2.28
49.05657958,-11.85,-1.41,-3.57
49.12368845,-10.71,-1.06,-0.55
49.19079731,-18.36,-0.47,-7.92
49.26629478,-11.26,-2.55,-4
49.33340365,-9.45,-0.43,-4.31
49.40890112,-6.86,-3.33,-3.22
49.4927872,-8.36,-2.51,-2.71
49.55989606,-8.63,-3.1,-2.51
49.66055936,-11.49,-3.88,-3.45
49.72766822,-9.41,-3.49,-0.24
49.86188595,-15.42,-8.36,-6.04
49.92899482,-13.34,-2.24,-5.06
49.99610368,-9.34,-4.12,-4.59
50.07160115,-7.14,-1.49,-3.26
50.16387584,-8.16,-0.63,-2.79
50.2309847,-8.79,-1.33,-1.84
50.29809357,-10.43,-2.63,-2.98
50.39036826,-11.1,-2,-0.39
50.45747712,-14.2,1.77,-6.55
50.54975181,-10.36,-3.1,-8.36
50.62524928,-10.55,-2.71,-3.65
50.69235814,-6.39,0.59,-3.57
50.83496448,-8.24,-3.61,-3.73
50.91046195,-8.43,-3.77,-2.71
50.97757082,-7.96,-3.41,-1.96
51.03629107,-10.12,-4.2,-2.55
51.12017715,-9.85,-5.02,-1.92
51.19567462,-10.2,-4.59,-6.35
51.2795607,-13.34,-1.92,-3.88
51.37183539,-7.37,-5.06,-4.47
51.43055565,-7.73,0.16,-3.1
51.52283034,-9.14,-1.49,-2.51
51.5899392,-9.02,-1.26,-2.43
51.68221389,-11.49,-2.2,-1.29
51.79126579,-11.89,1.69,-4.39
51.84998605,-12.04,0.24,-7.37
51.92548352,-13.3,-3.88,-2.71
52.00098099,-6.2,-0.47,-3.53
52.13519872,-7.81,-2.63,-2.98
52.19391898,-7.26,-4.04,-1.77
52.25263923,-9.57,-2.82,-2.47
52.73078989,-11.06,-4.9,-2.24
53.22571776,-12.47,-6.32,-4.75
53.25927219,-7.06,-6.08,-7.06
53.27604941,-14.71,-2.86,-2.9
53.28443802,-6.86,-4.12,-11.46
53.30960384,-6.71,-2.43,-2.82
53.39348992,-7.53,-2.75,-2.86
53.45221018,-7.26,-3.18,-2.39
53.55287347,-10.2,-3.26,-2.43
53.61159373,-10,-4.55,-0.78
53.76258867,-16.2,-9.57,-6.12
53.82969754,-10,-1.96,-7.45
53.8968064,-9.06,-4.59,-4.04
53.96391526,-6.71,-1.53,-3.3
54.03102413,-7.14,-0.63,-2.98
54.12329882,-8.24,-1.84,-2.04
54.19879629,-11.69,-1.02,-2.98
54.28268237,-10.83,0.08,-2.2
54.34140262,-15.65,-0.04,-8.32
54.44206592,-10.83,-5.1,-2.67
54.50917478,-6.67,0.08,-3.77
54.6350039,-8,-2.79,-3.37
54.70211277,-7.41,-4.12,-1.96
54.76922163,-9.22,-2.79,-2.2
54.92021658,-10.63,-4.79,-3.26
54.92860518,-8.98,-6.67,-3.18
54.98732544,-8.43,-7.41,-7.02
55.08798874,-14.47,-1.96,-3.53
55.17187482,-7.85,-5.3,-3.88
55.23898368,-6.75,-0.31,-3.49
55.32286976,-8.2,-1.02,-2.2
55.39836723,-8.67,-1.92,-1.33
55.49064192,-11.65,-3.37,-2.35
55.61647104,-13.3,0.12,-4.35
55.6751913,-12.12,-1.02,-7.96
55.75068877,-12.51,-4.67,-2.59
55.81779763,-7.45,0.35,-3.14
55.8932951,-6.9,-3.37,-3.3
55.97718118,-7.18,-3.49,-2.55
56.03590144,-8.59,-2.94,-2.43
56.12817613,-10.75,-4.98,-2.63
56.22045082,-10.12,-6.98,-3.69
56.3043369,-9.89,-5.65,-5.81
56.38822298,-13.73,-2.86,-3.77
56.44694323,-7.06,-4.51,-4
56.57277235,-7.1,0.24,-2.86
56.64826982,-8.32,-0.08,-2.16
56.70699008,-8.47,-1.22,-2.24
56.77409894,-12.24,-2.94,-2.71
56.87476224,-11.89,-0.04,-4.39
56.95025971,-12.87,-0.47,-6.59
57.01736858,-13.73,-5.65,-2.2
57.10964326,-6.59,0.2,-3.02
57.17675213,-7.49,-3.77,-3.3
57.26063821,-7.77,-3.41,-1.96
57.3529129,-8.67,-2.86,-2.35
57.42002176,-10.51,-4.51,-2.67
57.50390784,-8.51,-5.06,-2.39
57.64651418,-12.47,-8.39,-7.3
57.72201165,-13.38,-2.67,-3.37
57.7807319,-7.81,-4.2,-4.28
57.83106355,-8.04,-1.18,-3.65
57.92333824,-7.85,-1.49,-3.33
58.00722432,-8.32,-1.33,-2.63
58.06594458,-9.06,-1.96,-2.75
58.16660787,-9.77,-1.92,-1.84
58.25049395,-14.59,0.67,-8.83
58.72864461,-10.51,-7.26,-6.55
59.2487383,-9.77,1.33,-3.65
59.27390413,-5.53,-2.35,-4
59.27390413,-7.96,-2.39,-3.1
59.28229274,-7.37,-2.79,-11.07
59.32423578,-8.04,-0.78,-2.75
59.37456742,-8.9,-1.61,-1.96
59.4500649,-9.77,-1.96,-2.35
59.58428262,-11.14,-1.29,-1.1
59.6597801,-18.12,-0.67,-7.92
59.71850035,-9.06,-2.28,-5.88
59.768832,-10.47,-3.53,-4.43
59.85271808,-6.79,-0.94,-3.3
59.94499277,-8.71,-3.18,-2.63
60.02887885,-7.85,-3.84,-1.92
60.09598771,-9.65,-3.37,-2.28
60.17987379,-8.94,-4.82,-0.78
60.27214848,-18.59,-10.47,-6.79
60.33925734,-7.02,-2.98,-7.53
60.48186368,-11.02,-4.75,-5.33
60.54897254,-6.55,-2.67,-3.84
60.61608141,-7.73,-0.71,-2.35
60.66641306,-8.2,-1.1,-1.29
60.74191053,-9.65,-2.35,-2.24
60.85096243,-11.41,0,0.12
60.90968269,-16.12,-3.02,-6.86
61.00195738,-10.51,-1.73,-4.82
61.08584346,-10.28,-3.61,-4.28
61.14456371,-6,-1.69,-3.3
61.2368384,-8.43,-3.45,-2.51
61.3375017,-7.34,-2.9,-2.28
61.41299917,-9.73,-3.18,-2.12
61.48849664,-9.18,-4.9,-0.71
61.5556055,-19.14,-10.94,-7.37
61.63110298,-13.38,-0.86,-3.92
61.73176627,-9.96,-3.53,-4.59
61.81565235,-7.37,-2.24,-3.18
61.87437261,-8.2,-1.26,-1.8
61.9666473,-8.04,-0.94,-1.88
62.04214477,-10.71,-1.41,-3.14
62.12603085,-10.32,0.16,-0.35
62.20152832,-16.71,0.16,-9.81
62.30219162,-9.96,-2.86,-3.92
62.37768909,-8.24,-1.45,-4.16
62.43640934,-7.69,-3.02,-3.02
62.55384986,-8.63,-3.41,-2.16
62.62095872,-8.16,-2.16,-2.24
62.67967898,-11.34,-2.86,-3.84
62.77195366,-9.96,-4.28,-0.43
62.85583974,-16.12,-12.47,-8.16
62.94811443,-9.77,-0.78,-5.14
63.0152233,-9.77,-5.3,-4.39
63.09910938,-6.39,-2.2,-4
63.18299546,-7.45,0.16,-3.14
63.26688154,-8.24,-0.98,-2
63.40948787,-10.04,-2.16,-3.88
63.5437056,-11.14,-2.35,0.43
63.59403725,-18.71,0.71,-7.49
63.60242586,-10.16,-4.28,-4.71
63.66114611,-10.36,-1.92,-4.08
63.7534208,-6.94,-2.94,-2.9
63.83730688,-8.67,-2.59,-1.53
63.90441574,-8.51,-3.3,-2.2
63.99669043,-11.18,-5.3,-3.02
64.08057651,-10,-8.08,-3.92
64.14768538,-12.55,-5.49,-5.49
64.23996006,-15.26,-2.59,-2.86
64.70972211,-6.75,-5.1,-4.35
65.21303859,-7.53,-1.53,-3.69
65.2214272,-8.39,-0.39,-2.55
65.24659302,-8.9,-1.8,-2.04
65.24659302,-10.94,-3.14,-13.18
65.29692467,-9.96,-4.51,-3.14
65.36403354,-9.14,-6,-1.41
65.44791962,-12.47,-7.92,-6.2
65.5401943,-13.57,-1.29,-3.84
65.59891456,-7.88,-4.59,-4.79
65.69118925,-8.12,-1.33,-3.84
65.75829811,-8.75,-1.18,-3.37
65.8505728,-8.67,-1.73,-2.94
65.9596247,-9.26,-2.43,-2.71
66.01834496,-11.34,-1.61,-2.82
66.1609513,-14.16,0.2,-5.96
66.22806016,-11.57,-1.88,-6.98
66.29516902,-10.24,-3.69,-3.41
66.3706665,-8.12,-1.22,-4
